# Wavelength (nm)	Total Extinction Cross-Section (micron**2)	w_0	g	Q_Scattering
1.9000000e+02		3.1320513e-01		5.1078655e-01		3.2981369e-01		1.4716898e+00
1.9500000e+02		3.1370160e-01		5.0657173e-01		3.2153559e-01		1.4618596e+00
2.0000000e+02		3.1376688e-01		4.9359634e-01		3.1993910e-01		1.4247118e+00
2.0500000e+02		3.1299072e-01		4.7930433e-01		3.1973320e-01		1.3800372e+00
2.1000000e+02		3.1292364e-01		4.7435435e-01		3.1248406e-01		1.3654922e+00
2.1500000e+02		3.1291154e-01		4.7038989e-01		3.0467144e-01		1.3540276e+00
2.2000000e+02		3.1284165e-01		4.6560967e-01		2.9768326e-01		1.3399683e+00
2.2500000e+02		3.1269389e-01		4.6149760e-01		2.9041696e-01		1.3275070e+00
2.3000000e+02		3.1198152e-01		4.5109353e-01		2.8814540e-01		1.2946234e+00
2.3500000e+02		3.0785544e-01		4.2173340e-01		3.0259302e-01		1.1943533e+00
2.4000000e+02		3.0105461e-01		3.9309346e-01		3.2264142e-01		1.0886520e+00
2.4500000e+02		2.9941522e-01		3.8547116e-01		3.2001409e-01		1.0617291e+00
2.5000000e+02		2.9872895e-01		3.8056118e-01		3.1370839e-01		1.0458027e+00
2.5500000e+02		2.9640985e-01		3.7222982e-01		3.1297646e-01		1.0149666e+00
2.6000000e+02		2.9422037e-01		3.6479108e-01		3.1135228e-01		9.8733588e-01
2.6500000e+02		2.9329783e-01		3.6001121e-01		3.0568454e-01		9.7134350e-01
2.7000000e+02		2.9263079e-01		3.5531807e-01		2.9925214e-01		9.5650070e-01
2.7500000e+02		2.9133601e-01		3.4973183e-01		2.9470206e-01		9.3729713e-01
2.8000000e+02		2.8699410e-01		3.4114012e-01		2.9809819e-01		9.0064518e-01
2.8500000e+02		2.8517180e-01		3.3548022e-01		2.9393796e-01		8.8007860e-01
2.9000000e+02		2.8416340e-01		3.3072534e-01		2.8882506e-01		8.6453697e-01
2.9500000e+02		2.8278448e-01		3.2561302e-01		2.8414456e-01		8.4704269e-01
3.0000000e+02		2.7643198e-01		3.1957726e-01		2.8948787e-01		8.1266606e-01
3.0500000e+02		2.6834632e-01		3.2035163e-01		2.9766442e-01		7.9080710e-01
3.1000000e+02		2.5664505e-01		3.4569123e-01		3.0703819e-01		8.1614859e-01
3.1500000e+02		2.4744319e-01		3.8532458e-01		3.0626371e-01		8.7710219e-01
3.2000000e+02		2.3843901e-01		4.2137236e-01		3.0007069e-01		9.2425396e-01
3.2500000e+02		2.3091230e-01		4.5642942e-01		2.9203123e-01		9.6954656e-01
3.3000000e+02		2.2244784e-01		5.0135367e-01		2.8200628e-01		1.0259362e+00
3.3500000e+02		2.1466403e-01		5.3885696e-01		2.7246377e-01		1.0640958e+00
3.4000000e+02		2.0695348e-01		5.7523180e-01		2.6315338e-01		1.0951247e+00
3.4500000e+02		1.9863300e-01		6.1804773e-01		2.5389450e-01		1.1293314e+00
3.5000000e+02		1.9031006e-01		6.6039366e-01		2.4553176e-01		1.1561458e+00
3.5500000e+02		1.7638037e-01		6.9345214e-01		2.3873096e-01		1.1251611e+00
3.6000000e+02		1.7580678e-01		7.2378818e-01		2.3261156e-01		1.1705638e+00
3.6500000e+02		1.6843023e-01		7.5504660e-01		2.2680686e-01		1.1698812e+00
3.7000000e+02		1.6082252e-01		7.8748304e-01		2.2181432e-01		1.1650272e+00
3.7500000e+02		1.5469452e-01		8.1019800e-01		2.1780609e-01		1.1529596e+00
3.8000000e+02		1.4852214e-01		8.3024544e-01		2.1436866e-01		1.1343463e+00
3.8500000e+02		1.4264724e-01		8.4903456e-01		2.1108991e-01		1.1141322e+00
3.9000000e+02		1.4394742e-01		8.2853723e-01		2.0744506e-01		1.0971447e+00
3.9500000e+02		1.3171871e-01		8.8662438e-01		2.0402974e-01		1.0743235e+00
4.0000000e+02		1.2675997e-01		9.0045501e-01		2.0127774e-01		1.0500068e+00
4.0500000e+02		1.2245211e-01		9.1250005e-01		1.9812281e-01		1.0278912e+00
4.1000000e+02		1.1810631e-01		9.2306735e-01		1.9542822e-01		1.0028927e+00
4.1500000e+02		1.1418594e-01		9.3260271e-01		1.9301648e-01		9.7961916e-01
4.2000000e+02		1.1060172e-01		9.4124135e-01		1.9011206e-01		9.5765886e-01
4.2500000e+02		1.0663850e-01		9.4832666e-01		1.8793437e-01		9.3029340e-01
4.3000000e+02		1.0318872e-01		9.5496572e-01		1.8580550e-01		9.0650035e-01
4.3500000e+02		9.9556817e-02		9.6089162e-01		1.8315974e-01		8.8002169e-01
4.4000000e+02		9.4263254e-02		9.6632490e-01		1.8081274e-01		8.3794125e-01
4.4500000e+02		9.3661212e-02		9.7251894e-01		1.7852940e-01		8.3792628e-01
4.5000000e+02		9.1291620e-02		9.7652883e-01		1.7542569e-01		8.2009461e-01
4.5500000e+02		8.8703920e-02		9.8010204e-01		1.7310368e-01		7.9976442e-01
4.6000000e+02		8.6180230e-02		9.8294723e-01		1.7071555e-01		7.7926616e-01
4.6500000e+02		8.3720092e-02		9.8594475e-01		1.6831130e-01		7.5932945e-01
4.7000000e+02		8.1540443e-02		9.8852720e-01		1.6624669e-01		7.4149746e-01
4.7500000e+02		7.9430154e-02		9.9039659e-01		1.6424225e-01		7.2367323e-01
4.8000000e+02		7.7371151e-02		9.9188784e-01		1.6226121e-01		7.0597544e-01
4.8500000e+02		7.5481189e-02		9.9325403e-01		1.6028614e-01		6.8967906e-01
4.9000000e+02		7.3675658e-02		9.9469253e-01		1.5825126e-01		6.7415669e-01
4.9500000e+02		7.1853617e-02		9.9557918e-01		1.5600900e-01		6.5807048e-01
5.0000000e+02		7.0149731e-02		9.9630993e-01		1.5381031e-01		6.4293703e-01
5.0500000e+02		6.8555738e-02		9.9704623e-01		1.5138116e-01		6.2879210e-01
5.1000000e+02		6.7147688e-02		9.9764359e-01		1.4891916e-01		6.1624647e-01
